* 亜風実 (Afumi/Affriza) Target V2 Over-Ear Dynamic Transducer Class
* Version: V2
* Warning: Deprecated
* Hint: Look at V3
*
* Freq(Hz) SPL(dB)
20.000000 8.000
20.144928 8.000
20.290907 8.000
20.437943 8.000
20.586044 7.999
20.735220 7.994
20.885475 7.980
21.036819 7.953
21.189260 7.926
21.342806 7.909
21.497465 7.903
21.653244 7.901
21.810152 7.900
21.968197 7.900
22.127388 7.898
22.287733 7.889
22.449240 7.869
22.611916 7.840
22.775770 7.816
22.940813 7.805
23.107052 7.801
23.274494 7.800
23.443151 7.800
23.613029 7.800
23.784140 7.800
23.956490 7.800
24.130089 7.800
24.304945 7.799
24.481070 7.794
24.658470 7.780
24.837156 7.752
25.017136 7.723
25.198420 7.707
25.381018 7.701
25.564939 7.700
25.750193 7.700
25.936789 7.699
26.124737 7.698
26.314047 7.692
26.504730 7.677
26.696795 7.651
26.890251 7.624
27.085110 7.608
27.281380 7.602
27.479073 7.601
27.678198 7.600
27.878765 7.600
28.080786 7.600
28.284271 7.600
28.489231 7.600
28.695675 7.600
28.903616 7.600
29.113064 7.600
29.324030 7.600
29.536524 7.599
29.750557 7.595
29.966143 7.580
30.183290 7.553
30.402012 7.525
30.622318 7.509
30.844221 7.503
31.067732 7.501
31.292862 7.500
31.519623 7.500
31.748028 7.500
31.978086 7.500
32.209812 7.500
32.443218 7.500
32.678314 7.500
32.915115 7.499
33.153633 7.496
33.393879 7.486
33.635864 7.463
33.879604 7.435
34.125111 7.413
34.372395 7.404
34.621471 7.401
34.872353 7.399
35.125053 7.396
35.379585 7.386
35.635960 7.363
35.894192 7.334
36.154297 7.313
36.416286 7.302
36.680176 7.295
36.945976 7.280
37.213703 7.253
37.483368 7.225
37.754990 7.207
38.028580 7.201
38.304150 7.200
38.581718 7.200
38.861298 7.200
39.142902 7.196
39.426548 7.181
39.712250 7.154
40.000023 7.125
40.289879 7.108
40.581837 7.102
40.875908 7.100
41.172112 7.099
41.470463 7.095
41.770973 7.082
42.073662 7.057
42.378544 7.030
42.685635 7.011
42.994953 7.003
43.306511 7.001
43.620327 7.000
43.936417 6.996
44.254799 6.985
44.575489 6.962
44.898502 6.933
45.223854 6.913
45.551563 6.902
45.881649 6.893
46.214127 6.876
46.549015 6.846
46.886330 6.817
47.226086 6.796
47.568306 6.771
47.913006 6.733
48.260204 6.681
48.609917 6.623
48.962166 6.566
49.316967 6.511
49.674339 6.456
50.034302 6.403
50.396870 6.358
50.762066 6.323
51.129910 6.301
51.500420 6.279
51.873611 6.249
52.249508 6.220
52.628128 6.200
53.009495 6.179
53.393623 6.150
53.780537 6.121
54.170254 6.097
54.562794 6.070
54.958179 6.030
55.356430 5.982
55.757565 5.933
56.161606 5.887
56.568577 5.844
56.978497 5.802
57.391388 5.761
57.807270 5.719
58.226166 5.677
58.648098 5.635
59.073086 5.593
59.501152 5.554
59.932323 5.522
60.366619 5.498
60.804062 5.471
61.244675 5.429
61.688480 5.379
62.135502 5.335
62.585762 5.305
63.039284 5.279
63.496094 5.246
63.956211 5.204
64.419662 5.163
64.886475 5.128
65.356667 5.106
65.830269 5.087
66.307304 5.062
66.787796 5.033
67.271767 5.009
67.759247 4.989
68.250259 4.962
68.744827 4.922
69.242981 4.875
69.744743 4.826
70.250145 4.779
70.759209 4.739
71.271957 4.710
71.788422 4.688
72.308632 4.661
72.832611 4.631
73.360390 4.606
73.891991 4.582
74.427444 4.548
74.966774 4.505
75.510017 4.459
76.057198 4.413
76.608337 4.369
77.163475 4.326
77.722633 4.283
78.285843 4.239
78.853134 4.196
79.424538 4.154
80.000084 4.122
80.579796 4.101
81.163712 4.081
81.751854 4.051
82.344261 4.011
82.940964 3.966
83.541985 3.920
84.147362 3.875
84.757126 3.836
85.371307 3.809
85.989944 3.788
86.613060 3.761
87.240692 3.732
87.872871 3.706
88.509636 3.683
89.151016 3.651
89.797043 3.609
90.447746 3.561
91.103165 3.510
91.763336 3.458
92.428291 3.406
93.098068 3.354
93.772697 3.300
94.452209 3.245
95.136650 3.189
95.826050 3.133
96.520447 3.077
97.219872 3.022
97.924370 2.967
98.633972 2.912
99.348717 2.856
100.068642 2.801
100.793777 2.749
101.524170 2.699
102.259857 2.649
103.000877 2.599
103.747261 2.548
104.499054 2.497
105.256294 2.447
106.019028 2.398
106.787285 2.347
107.561111 2.296
108.340546 2.245
109.125626 2.194
109.916397 2.142
110.712898 2.090
111.515167 2.037
112.323250 1.986
113.137192 1.935
113.957031 1.882
114.782814 1.828
115.614578 1.777
116.452370 1.728
117.296234 1.674
118.146210 1.615
119.002342 1.568
119.864685 1.533
120.733276 1.509
121.608162 1.491
122.489388 1.467
123.376999 1.437
124.271042 1.405
125.171562 1.374
126.078606 1.340
126.992226 1.313
127.912460 1.293
128.839371 1.273
129.772995 1.249
130.713379 1.223
131.660583 1.194
132.614655 1.160
133.575638 1.119
134.543579 1.072
135.518539 1.024
136.500565 0.975
137.489700 0.926
138.486008 0.877
139.489532 0.831
140.500336 0.788
141.518463 0.749
142.543961 0.710
143.576889 0.668
144.617310 0.622
145.665268 0.576
146.720825 0.532
147.784027 0.489
148.854935 0.446
149.933594 0.403
151.020081 0.359
152.114441 0.316
153.216721 0.271
154.326996 0.227
155.445312 0.184
156.571732 0.145
157.706314 0.117
158.849121 0.099
160.000214 0.080
161.159637 0.053
162.327469 0.024
163.503754 0.004
164.688568 -0.015
165.881973 -0.041
167.084015 -0.070
168.294769 -0.093
169.514297 -0.112
170.742661 -0.138
171.979935 -0.167
173.226166 -0.192
174.481430 -0.212
175.745789 -0.238
177.019318 -0.268
178.302078 -0.293
179.594131 -0.314
180.895538 -0.342
182.206375 -0.372
183.526718 -0.396
184.856628 -0.419
186.196182 -0.449
187.545441 -0.480
188.904465 -0.503
190.273346 -0.527
191.652145 -0.558
193.040939 -0.583
194.439789 -0.595
195.848785 -0.599
197.267990 -0.602
198.697479 -0.608
200.137329 -0.625
201.587601 -0.652
203.048386 -0.679
204.519760 -0.694
206.001801 -0.700
207.494568 -0.707
208.998154 -0.722
210.512634 -0.749
212.038101 -0.777
213.574615 -0.792
215.122269 -0.798
216.681137 -0.801
218.251297 -0.806
219.832840 -0.818
221.425842 -0.841
223.030380 -0.867
224.646545 -0.887
226.274429 -0.898
227.914108 -0.905
229.565674 -0.919
231.229202 -0.945
232.904785 -0.974
234.592514 -0.991
236.292465 -0.998
238.004730 -0.999
239.729416 -1.000
241.466599 -1.000
243.216370 -1.000
244.978821 -1.000
246.754044 -1.000
248.542130 -1.000
250.343170 -1.000
252.157257 -1.000
253.984497 -1.000
255.824966 -1.000
257.678772 -1.000
259.546021 -1.000
261.426788 -1.000
263.321198 -1.000
265.229340 -1.000
267.151306 -1.000
269.087189 -1.000
271.037109 -1.000
273.001160 -1.000
274.979431 -1.000
276.972046 -1.000
278.979095 -1.000
281.000702 -1.000
283.036957 -1.000
285.087952 -1.000
287.153809 -1.000
289.234650 -1.000
291.330566 -1.000
293.441681 -1.000
295.568085 -1.000
297.709900 -1.000
299.867218 -1.000
302.040192 -1.000
304.228912 -1.000
306.433472 -1.000
308.654022 -1.000
310.890656 -1.000
313.143494 -1.000
315.412659 -1.000
317.698273 -1.000
320.000458 -1.000
322.319305 -1.000
324.654968 -1.000
327.007538 -1.000
329.377167 -1.000
331.763977 -1.000
334.168091 -1.000
336.589600 -1.000
339.028656 -1.000
341.485413 -1.000
343.959961 -1.000
346.452423 -1.000
348.962952 -1.000
351.491669 -1.000
354.038727 -1.000
356.604248 -1.000
359.188354 -1.000
361.791168 -1.000
364.412842 -1.000
367.053528 -1.000
369.713348 -1.000
372.392456 -1.000
375.090973 -1.000
377.809052 -1.000
380.546814 -1.000
383.304413 -1.000
386.082001 -1.000
388.879700 -1.000
391.697693 -1.000
394.536102 -1.000
397.395081 -1.000
400.274780 -1.000
403.175323 -1.000
406.096893 -1.000
409.039642 -1.000
412.003723 -1.000
414.989258 -1.000
417.996429 -1.000
421.025391 -1.000
424.076324 -1.000
427.149353 -1.000
430.244659 -1.000
433.362396 -1.000
436.502716 -1.000
439.665802 -1.000
442.851807 -1.000
446.060883 -1.000
449.293213 -1.000
452.548981 -1.000
455.828339 -1.000
459.131470 -1.000
462.458527 -1.000
465.809692 -1.000
469.185150 -1.000
472.585052 -1.000
476.009613 -1.000
479.458984 -1.000
482.933350 -1.000
486.432892 -1.000
489.957794 -1.000
493.508240 -1.000
497.084412 -1.000
500.686493 -1.000
504.314667 -1.000
507.969147 -1.000
511.650085 -1.000
515.357727 -1.000
519.092224 -1.000
522.853760 -1.000
526.642578 -1.000
530.458862 -1.000
534.302795 -0.999
538.174561 -0.996
542.074402 -0.988
546.002502 -0.968
549.959045 -0.939
553.944275 -0.915
557.958374 -0.904
562.001587 -0.901
566.074097 -0.900
570.176086 -0.900
574.307800 -0.900
578.469482 -0.900
582.661316 -0.900
586.883545 -0.900
591.136353 -0.900
595.419983 -0.900
599.734619 -0.900
604.080566 -0.900
608.458008 -0.900
612.867126 -0.900
617.308228 -0.900
621.781494 -0.900
626.287170 -0.900
630.825500 -0.900
635.396729 -0.900
640.001099 -0.900
644.638794 -0.900
649.310120 -0.900
654.015259 -0.900
658.754517 -0.900
663.528137 -0.900
668.336365 -0.900
673.179382 -0.900
678.057495 -0.900
682.971008 -0.900
687.920105 -0.900
692.905029 -0.900
697.926086 -0.900
702.983521 -0.900
708.077637 -0.899
713.208679 -0.895
718.376892 -0.882
723.582520 -0.858
728.825867 -0.829
734.107239 -0.810
739.426880 -0.801
744.785095 -0.794
750.182129 -0.778
755.618286 -0.752
761.093811 -0.725
766.609009 -0.708
772.164185 -0.701
777.759583 -0.698
783.395569 -0.691
789.072388 -0.672
794.790344 -0.638
800.549744 -0.595
806.350830 -0.554
812.193970 -0.522
818.079468 -0.506
824.007629 -0.500
829.978699 -0.496
835.993042 -0.483
842.050964 -0.459
848.152832 -0.431
854.298889 -0.411
860.489502 -0.402
866.724976 -0.395
873.005615 -0.380
879.331787 -0.352
885.703796 -0.322
892.121948 -0.301
898.586609 -0.281
905.098145 -0.253
911.656860 -0.223
918.263123 -0.201
924.917236 -0.179
931.619568 -0.149
938.370483 -0.118
945.170288 -0.092
952.019409 -0.058
958.918152 -0.004
965.866882 0.071
972.865967 0.154
979.915771 0.228
987.016663 0.292
994.169006 0.350
1001.373169 0.405
1008.629517 0.458
1015.938477 0.509
1023.300415 0.566
1030.715698 0.634
1038.184692 0.714
1045.707764 0.791
1053.285400 0.854
1060.917969 0.907
1068.605835 0.958
1076.349365 1.010
1084.149048 1.062
1092.005249 1.116
1099.918335 1.175
1107.888794 1.248
1115.916992 1.331
1124.003418 1.406
1132.148438 1.468
1140.352417 1.524
1148.615845 1.579
1156.939209 1.629
1165.322876 1.678
1173.767334 1.732
1182.272949 1.790
1190.840210 1.838
1199.469482 1.881
1208.161377 1.926
1216.916260 1.976
1225.734497 2.028
1234.616699 2.085
1243.563232 2.156
1252.574585 2.246
1261.651245 2.340
1270.793701 2.420
1280.002441 2.478
1289.277832 2.520
1298.620483 2.558
1308.030762 2.602
1317.509277 2.660
1327.056519 2.724
1336.672974 2.782
1346.359009 2.836
1356.115234 2.897
1365.942261 2.970
1375.840454 3.048
1385.810303 3.119
1395.852417 3.183
1405.967285 3.245
1416.155518 3.309
1426.417603 3.372
1436.754028 3.434
1447.165283 3.498
1457.652100 3.570
1468.214844 3.649
1478.854126 3.732
1489.570557 3.813
1500.364624 3.883
1511.236938 3.941
1522.187988 3.989
1533.218384 4.034
1544.328735 4.078
1555.519531 4.123
1566.791504 4.168
1578.145142 4.213
1589.581055 4.259
1601.099854 4.305
1612.702026 4.352
1624.388306 4.398
1636.159302 4.445
1648.015625 4.493
1659.957886 4.541
1671.986572 4.589
1684.102417 4.637
1696.306152 4.686
1708.598267 4.735
1720.979492 4.785
1733.450439 4.835
1746.011719 4.886
1758.664062 4.941
1771.408081 5.005
1784.244385 5.081
1797.173706 5.162
1810.196777 5.232
1823.314209 5.292
1836.526733 5.347
1849.834961 5.400
1863.239624 5.454
1876.741455 5.508
1890.341064 5.562
1904.039307 5.617
1917.836792 5.673
1931.734253 5.729
1945.732422 5.786
1959.832031 5.848
1974.033813 5.921
1988.338501 6.005
2002.746826 6.086
2017.259521 6.152
2031.877441 6.208
2046.601318 6.265
2061.431885 6.333
2076.369873 6.418
2091.416016 6.515
2106.571289 6.619
2121.836426 6.728
2137.212158 6.834
2152.699219 6.914
2168.298584 6.975
2184.010986 7.030
2199.837158 7.086
2215.778076 7.137
2231.834473 7.184
2248.007324 7.232
2264.297363 7.283
2280.705322 7.337
2297.232178 7.392
2313.878906 7.447
2330.646240 7.502
2347.535156 7.556
2364.546387 7.607
2381.680908 7.654
2398.939453 7.701
2416.323242 7.745
2433.833008 7.779
2451.469482 7.801
2469.233887 7.823
2487.126953 7.853
2505.149658 7.882
2523.302979 7.902
2541.587891 7.922
2560.005371 7.950
2578.556152 7.978
2597.241455 7.999
2616.062256 8.020
2635.019287 8.050
2654.113770 8.081
2673.346680 8.104
2692.718750 8.129
2712.231201 8.160
2731.885254 8.181
2751.681641 8.181
2771.621582 8.158
2791.705811 8.121
2811.935547 8.078
2832.312012 8.036
2852.836182 7.995
2873.509033 7.953
2894.331543 7.911
2915.305176 7.871
2936.430664 7.837
2957.709229 7.813
2979.142090 7.802
3000.730225 7.797
3022.474854 7.787
3044.376953 7.765
3066.437744 7.732
3088.658447 7.703
3111.040039 7.675
3133.583984 7.637
3156.291260 7.590
3179.163086 7.543
3202.200684 7.496
3225.405029 7.450
3248.777588 7.404
3272.319580 7.361
3296.032227 7.327
3319.916748 7.304
3343.974121 7.285
3368.206055 7.258
3392.613525 7.229
3417.197754 7.206
3441.960205 7.186
3466.902100 7.160
3492.024658 7.131
3517.329346 7.111
3542.817383 7.103
3568.489990 7.100
3594.348633 7.099
3620.394775 7.094
3646.629639 7.079
3673.054688 7.052
3699.671143 7.024
3726.480469 7.008
3753.484131 7.002
3780.683350 6.997
3808.079834 6.985
3835.674805 6.960
3863.469727 6.931
3891.466064 6.910
3919.665283 6.896
3948.068848 6.877
3976.678223 6.849
4005.494873 6.819
4034.520264 6.798
4063.756104 6.776
4093.203857 6.747
4122.864746 6.719
4152.740723 6.699
4182.833008 6.679
4213.143555 6.647
4243.673828 6.606
4274.425293 6.559
4305.399414 6.509
4336.598145 6.463
4368.022949 6.426
4399.675293 6.403
4431.557129 6.383
4463.669922 6.355
4496.015625 6.324
4528.595703 6.298
4561.411621 6.272
4594.465332 6.242
4627.758789 6.214
4661.293457 6.192
4695.071289 6.168
4729.093750 6.138
4763.362793 6.115
4797.879883 6.102
4832.647461 6.093
4867.666992 6.078
4902.939941 6.051
4938.468750 6.021
4974.254883 5.998
5010.300293 5.973
5046.606934 5.937
5083.176758 5.895
5120.011719 5.852
5157.113281 5.819
5194.483887 5.795
5232.125488 5.770
5270.039551 5.734
5308.228516 5.689
5346.694336 5.642
5385.438477 5.594
5424.463379 5.549
5463.771484 5.515
5503.364258 5.490
5543.244141 5.460
5583.412598 5.421
5623.872070 5.378
5664.625000 5.336
5705.673340 5.295
5747.019043 5.253
5788.664551 5.212
5830.611816 5.170
5872.862793 5.127
5915.419922 5.086
5958.285645 5.047
6001.461914 5.017
6044.951172 4.995
6088.755371 4.969
6132.876953 4.936
6177.318359 4.907
6222.081543 4.879
6267.169434 4.847
6312.583984 4.820
6358.327637 4.805
6404.402832 4.800
6450.812012 4.794
6497.557129 4.780
6544.641113 4.754
6592.066406 4.726
6639.835449 4.709
6687.950195 4.702
6736.414062 4.700
6785.229004 4.700
6834.397461 4.700
6883.922363 4.701
6933.806152 4.705
6984.051270 4.717
7034.660645 4.741
7085.636719 4.770
7136.981934 4.790
7188.699219 4.799
7240.791504 4.806
7293.261230 4.823
7346.111328 4.856
7399.344238 4.900
7452.962891 4.944
7506.970215 4.977
7561.368652 4.994
7616.161621 4.999
7671.351562 5.000
7726.941406 5.000
7782.934082 4.997
7839.332520 4.981
7896.139648 4.942
7953.358398 4.878
8010.991699 4.805
8069.042480 4.727
8127.514160 4.628
8186.409668 4.496
8245.731445 4.352
8305.483398 4.214
8365.667969 4.057
8426.289062 3.854
8487.349609 3.626
8548.852539 3.422
8610.800781 3.258
8673.198242 3.115
8736.047852 2.959
8799.352539 2.764
8863.116211 2.569
8927.341797 2.411
8992.033203 2.269
9057.193359 2.109
9122.825195 1.940
9188.932617 1.770
9255.519531 1.561
9322.588867 1.287
9390.144531 1.014
9458.189453 0.804
9526.727539 0.637
9595.761719 0.484
9665.296875 0.345
9735.335938 0.213
9805.881836 0.080
9876.939453 -0.042
9948.511719 -0.135
10020.602539 -0.203
10093.215820 -0.259
10166.355469 -0.308
10240.025391 -0.351
10314.228516 -0.383
10388.969727 -0.405
10464.252930 -0.430
10540.081055 -0.467
10616.458984 -0.513
10693.390625 -0.562
10770.878906 -0.613
10848.928711 -0.665
10927.544922 -0.716
11006.730469 -0.767
11086.490234 -0.820
11166.827148 -0.872
11247.746094 -0.921
11329.251953 -0.963
11411.348633 -1.000
11494.040039 -1.046
11577.331055 -1.124
11661.225586 -1.237
11745.727539 -1.382
11830.841797 -1.548
11916.573242 -1.716
12002.925781 -1.876
12089.904297 -2.024
12177.512695 -2.160
12265.755859 -2.293
12354.638672 -2.432
12444.165039 -2.586
12534.340820 -2.749
12625.169922 -2.897
12716.657227 -3.006
12808.807617 -3.076
12901.625977 -3.121
12995.116211 -3.160
13089.284180 -3.206
13184.134766 -3.267
13279.672852 -3.329
13375.903320 -3.382
13472.831055 -3.420
13570.460938 -3.424
13668.797852 -3.362
13767.847656 -3.202
13867.615234 -2.928
13968.105469 -2.569
14069.324219 -2.177
14171.276367 -1.797
14273.966797 -1.461
14377.401367 -1.176
14481.585938 -0.890
14586.525391 -0.552
14692.225586 -0.205
14798.691406 0.077
14905.928711 0.261
15013.943359 0.371
15122.740234 0.430
15232.326172 0.439
15342.706055 0.378
15453.885742 0.207
15565.871094 -0.115
15678.667969 -0.563
15792.282227 -1.070
15906.719727 -1.608
16021.986328 -2.226
16138.087891 -2.952
16255.031250 -3.694
16372.822266 -4.343
16491.466797 -4.908
16610.970703 -5.438
16731.339844 -5.907
16852.582031 -6.266
16974.703125 -6.529
17097.708984 -6.755
17221.605469 -6.995
17346.400391 -7.281
17472.099609 -7.616
17598.708984 -7.982
17726.236328 -8.351
17854.687500 -8.691
17984.070312 -8.987
18114.390625 -9.230
18245.654297 -9.414
18377.869141 -9.554
18511.042969 -9.701
18645.181641 -9.896
18780.292969 -10.121
18916.382812 -10.347
19053.458984 -10.561
19191.527344 -10.754
19330.597656 -10.919
19470.675781 -11.102
19611.767578 -11.403
19753.882812 -11.963
19897.027344 -13.058
20041.208984 0.000
